##TITLE=Spectrum
##JCAMP-DX=5.00 $$ chemotion-converter-app (0.1.0)
##DATA TYPE=X-RAY DIFFRACTION
##DATA CLASS=NTUPLES
##ORIGIN=
##OWNER=
##FIRSTX=7.0000
##LASTX=46.9892
##MINX=7.0
##MAXX=46.9892
##MINY=0.9047
##MAXY=12.2141
##NPOINTS=1844
##FIRSTY=1.1905
##XUNITS=1/CM
##YUNITS=COUNTS
##XYDATA=(XY..XY)
7.0000, 1.1905
7.0217, 1.1666
7.0434, 1.5476
7.0651, 1.3095
7.0868, 1.3333
7.1085, 1.4524
7.1302, 1.4047
7.1519, 1.4285
7.1736, 1.4285
7.1953, 1.4285
7.2170, 1.3333
7.2387, 1.5238
7.2604, 1.4762
7.2821, 1.2857
7.3038, 1.6190
7.3255, 1.4762
7.3472, 1.7857
7.3689, 1.5238
7.3906, 1.2381
7.4123, 0.9047
7.4340, 1.2857
7.4557, 1.6190
7.4774, 1.8809
7.4991, 1.3571
7.5207, 1.5714
7.5424, 1.2857
7.5641, 1.5714
7.5858, 1.5238
7.6075, 1.6666
7.6292, 1.3571
7.6509, 1.3809
7.6726, 1.6666
7.6943, 1.6904
7.7160, 1.4285
7.7377, 1.9047
7.7594, 1.7143
7.7811, 1.5000
7.8028, 1.8333
7.8245, 1.6666
7.8462, 1.5000
7.8679, 1.5238
7.8896, 2.0238
7.9113, 1.6904
7.9330, 1.8571
7.9547, 2.1904
7.9764, 2.2381
7.9981, 2.3095
8.0198, 2.5714
8.0415, 2.4761
8.0632, 3.3333
8.0849, 3.5237
8.1066, 4.1190
8.1283, 4.4999
8.1500, 5.4523
8.1717, 6.4523
8.1934, 7.3332
8.2151, 8.5951
8.2368, 9.3093
8.2585, 9.5951
8.2802, 10.8093
8.3019, 10.2141
8.3236, 10.6427
8.3453, 9.6427
8.3670, 7.7379
8.3887, 7.0475
8.4104, 6.4046
8.4321, 5.0475
8.4538, 4.9999
8.4755, 4.9999
8.4972, 4.6904
8.5189, 3.8809
8.5406, 3.9047
8.5622, 3.6904
8.5839, 3.4999
8.6056, 3.9999
8.6273, 4.0475
8.6490, 3.6190
8.6707, 3.9999
8.6924, 4.9285
8.7141, 4.4285
8.7358, 4.6666
8.7575, 5.4761
8.7792, 5.1189
8.8009, 5.8570
8.8226, 4.4047
8.8443, 5.2380
8.8660, 4.9999
8.8877, 4.3809
8.9094, 4.4999
8.9311, 3.6428
8.9528, 3.3809
8.9745, 3.5714
8.9962, 2.9047
9.0179, 2.6904
9.0396, 2.4047
9.0613, 1.9285
9.0830, 3.0714
9.1047, 1.9285
9.1264, 1.5000
9.1481, 2.1190
9.1698, 1.9047
9.1915, 1.8095
9.2132, 1.9762
9.2349, 1.8333
9.2566, 1.7857
9.2783, 2.1428
9.3000, 2.1428
9.3217, 1.6428
9.3434, 1.9047
9.3651, 1.7381
9.3868, 2.1904
9.4085, 1.9762
9.4302, 1.6666
9.4519, 2.0000
9.4736, 2.1428
9.4953, 2.1666
9.5170, 1.7619
9.5387, 2.4047
9.5604, 2.0000
9.5821, 1.9762
9.6037, 2.1428
9.6254, 1.6904
9.6471, 1.7619
9.6688, 1.9285
9.6905, 1.7857
9.7122, 2.1428
9.7339, 1.9285
9.7556, 2.0238
9.7773, 1.6666
9.7990, 2.0000
9.8207, 2.0476
9.8424, 1.9523
9.8641, 1.5714
9.8858, 1.4762
9.9075, 1.5714
9.9292, 2.4047
9.9509, 1.7619
9.9726, 1.5000
9.9943, 2.1904
10.0160, 2.0238
10.0377, 2.0238
10.0594, 1.6666
10.0811, 2.0714
10.1028, 1.5714
10.1245, 1.9047
10.1462, 2.0952
10.1679, 2.0238
10.1896, 2.0000
10.2113, 2.2142
10.2330, 2.1190
10.2547, 2.1666
10.2764, 1.9762
10.2981, 2.0952
10.3198, 1.5476
10.3415, 2.2142
10.3632, 1.8571
10.3849, 2.0476
10.4066, 1.8571
10.4283, 2.2142
10.4500, 1.9523
10.4717, 1.8333
10.4934, 2.4523
10.5151, 2.0714
10.5368, 2.0714
10.5585, 2.0476
10.5802, 2.1666
10.6019, 2.4047
10.6235, 2.0476
10.6452, 2.3333
10.6669, 1.7381
10.6886, 2.3095
10.7103, 2.1904
10.7320, 2.3095
10.7537, 1.6666
10.7754, 2.2142
10.7971, 2.4285
10.8188, 2.3333
10.8405, 2.0238
10.8622, 2.4047
10.8839, 2.1428
10.9056, 1.9762
10.9273, 2.4761
10.9490, 2.1190
10.9707, 2.1428
10.9924, 2.0476
11.0141, 2.3095
11.0358, 2.8333
11.0575, 2.1666
11.0792, 2.1190
11.1009, 1.8809
11.1226, 2.0714
11.1443, 2.8095
11.1660, 1.8333
11.1877, 2.1904
11.2094, 2.1190
11.2311, 2.2142
11.2528, 2.3333
11.2745, 2.4523
11.2962, 2.7380
11.3179, 2.1190
11.3396, 1.8809
11.3613, 2.3571
11.3830, 2.2857
11.4047, 2.3333
11.4264, 2.7380
11.4481, 2.2142
11.4698, 2.5000
11.4915, 2.4761
11.5132, 2.2857
11.5349, 2.3809
11.5566, 2.6428
11.5783, 2.5000
11.6000, 2.4285
11.6217, 2.7619
11.6434, 2.5714
11.6650, 2.5952
11.6867, 2.6666
11.7084, 2.6190
11.7301, 2.8095
11.7518, 2.6904
11.7735, 2.8333
11.7952, 2.9523
11.8169, 2.5000
11.8386, 2.5714
11.8603, 2.8571
11.8820, 2.5238
11.9037, 2.8571
11.9254, 2.7619
11.9471, 2.8809
11.9688, 2.5952
11.9905, 2.7380
12.0122, 2.5476
12.0339, 2.7619
12.0556, 2.8809
12.0773, 2.8333
12.0990, 3.2618
12.1207, 2.5714
12.1424, 2.9047
12.1641, 2.7619
12.1858, 3.0476
12.2075, 2.4047
12.2292, 3.3809
12.2509, 2.7857
12.2726, 3.0238
12.2943, 2.6904
12.3160, 3.2618
12.3377, 2.4523
12.3594, 2.7142
12.3811, 3.0714
12.4028, 3.0238
12.4245, 3.7856
12.4462, 3.2380
12.4679, 3.4047
12.4896, 3.0952
12.5113, 3.1190
12.5330, 3.2142
12.5547, 2.5476
12.5764, 2.8333
12.5981, 2.9285
12.6198, 2.8571
12.6415, 3.4523
12.6632, 3.1666
12.6848, 2.9047
12.7065, 3.0476
12.7282, 2.9285
12.7499, 2.7619
12.7716, 3.3571
12.7933, 3.2618
12.8150, 3.6904
12.8367, 2.9047
12.8584, 3.1666
12.8801, 3.1428
12.9018, 2.9999
12.9235, 2.7380
12.9452, 3.0476
12.9669, 3.5714
12.9886, 3.3095
13.0103, 3.0238
13.0320, 3.2618
13.0537, 3.3571
13.0754, 3.1904
13.0971, 3.4761
13.1188, 3.7380
13.1405, 3.1190
13.1622, 3.1190
13.1839, 2.9047
13.2056, 3.0952
13.2273, 3.4047
13.2490, 3.4285
13.2707, 3.0238
13.2924, 3.3333
13.3141, 3.7380
13.3358, 3.4523
13.3575, 3.5237
13.3792, 4.1904
13.4009, 3.4761
13.4226, 3.1190
13.4443, 3.4047
13.4660, 3.4047
13.4877, 3.4047
13.5094, 3.7142
13.5311, 4.0475
13.5528, 3.4761
13.5745, 3.4285
13.5962, 3.5476
13.6179, 3.6190
13.6396, 4.0475
13.6613, 3.6904
13.6830, 3.8809
13.7047, 3.5476
13.7263, 4.3094
13.7480, 3.3809
13.7697, 3.8571
13.7914, 4.2380
13.8131, 3.9047
13.8348, 3.9523
13.8565, 4.5713
13.8782, 4.0952
13.8999, 3.9285
13.9216, 4.1190
13.9433, 4.0475
13.9650, 4.8809
13.9867, 4.4999
14.0084, 4.5713
14.0301, 4.7142
14.0518, 4.0952
14.0735, 3.8571
14.0952, 4.6190
14.1169, 4.7142
14.1386, 4.5713
14.1603, 4.3333
14.1820, 4.8094
14.2037, 4.6190
14.2254, 4.9047
14.2471, 4.5713
14.2688, 4.5237
14.2905, 3.8571
14.3122, 4.8571
14.3339, 4.5475
14.3556, 4.9999
14.3773, 5.1904
14.3990, 5.1428
14.4207, 4.7618
14.4424, 5.3094
14.4641, 4.6666
14.4858, 4.6666
14.5075, 4.4523
14.5292, 4.2380
14.5509, 5.7856
14.5726, 4.4047
14.5943, 4.5713
14.6160, 4.5713
14.6377, 4.7380
14.6594, 4.6190
14.6811, 4.4761
14.7028, 4.8809
14.7245, 4.8332
14.7462, 5.0237
14.7678, 5.0475
14.7895, 5.1189
14.8112, 4.7142
14.8329, 5.3332
14.8546, 5.2618
14.8763, 4.8094
14.8980, 5.1189
14.9197, 4.4761
14.9414, 5.9046
14.9631, 5.8094
14.9848, 5.5951
15.0065, 5.4523
15.0282, 5.8094
15.0499, 5.8808
15.0716, 6.2618
15.0933, 6.3808
15.1150, 6.5237
15.1367, 7.5951
15.1584, 7.6189
15.1801, 7.1189
15.2018, 7.4760
15.2235, 7.9998
15.2452, 7.1903
15.2669, 8.0951
15.2886, 7.7856
15.3103, 8.6189
15.3320, 8.5475
15.3537, 8.6189
15.3754, 8.5713
15.3971, 8.4760
15.4188, 8.6189
15.4405, 8.3332
15.4622, 7.6665
15.4839, 8.2379
15.5056, 7.8808
15.5273, 7.2856
15.5490, 6.7142
15.5707, 7.1189
15.5924, 7.2618
15.6141, 6.6665
15.6358, 5.7142
15.6575, 6.0951
15.6792, 5.7618
15.7009, 5.8094
15.7226, 5.8332
15.7443, 6.3094
15.7660, 5.4761
15.7876, 5.2142
15.8093, 5.7618
15.8310, 5.4523
15.8527, 5.4047
15.8744, 5.4523
15.8961, 5.7618
15.9178, 5.3332
15.9395, 5.3808
15.9612, 4.9047
15.9829, 5.9285
16.0046, 5.4999
16.0263, 4.9523
16.0480, 5.1428
16.0697, 5.2380
16.0914, 5.9523
16.1131, 5.0713
16.1348, 5.5237
16.1565, 5.1428
16.1782, 5.6427
16.1999, 5.3332
16.2216, 5.7618
16.2433, 6.3808
16.2650, 5.6189
16.2867, 6.4046
16.3084, 5.9523
16.3301, 7.0237
16.3518, 7.7618
16.3735, 7.7379
16.3952, 7.5475
16.4169, 8.5951
16.4386, 8.9998
16.4603, 9.1903
16.4820, 8.8808
16.5037, 8.8094
16.5254, 9.2379
16.5471, 9.4284
16.5688, 8.9522
16.5905, 8.8094
16.6122, 9.0713
16.6339, 10.4522
16.6556, 9.2379
16.6773, 9.4284
16.6990, 9.3093
16.7207, 8.9046
16.7424, 7.5951
16.7641, 7.9760
16.7858, 6.6665
16.8075, 7.4046
16.8291, 6.8808
16.8508, 5.6666
16.8725, 6.9522
16.8942, 6.1904
16.9159, 5.8570
16.9376, 6.1904
16.9593, 6.3570
16.9810, 5.6427
17.0027, 5.9285
17.0244, 6.3570
17.0461, 6.1427
17.0678, 6.1189
17.0895, 5.8570
17.1112, 5.3094
17.1329, 5.5951
17.1546, 5.8332
17.1763, 5.9999
17.1980, 5.7618
17.2197, 6.1904
17.2414, 6.4046
17.2631, 5.8094
17.2848, 5.4523
17.3065, 5.9285
17.3282, 5.7618
17.3499, 6.2380
17.3716, 6.0713
17.3933, 6.6903
17.4150, 6.9999
17.4367, 6.5713
17.4584, 7.2856
17.4801, 6.4761
17.5018, 6.6189
17.5235, 6.5951
17.5452, 7.0951
17.5669, 7.6665
17.5886, 7.3808
17.6103, 7.4284
17.6320, 7.1427
17.6537, 6.0475
17.6754, 7.7141
17.6971, 6.7380
17.7188, 7.5475
17.7405, 7.0713
17.7622, 7.8570
17.7839, 6.1189
17.8056, 6.8808
17.8273, 7.1427
17.8489, 6.1189
17.8706, 6.4761
17.8923, 6.1665
17.9140, 6.5237
17.9357, 6.4284
17.9574, 5.8332
17.9791, 6.2856
18.0008, 6.2142
18.0225, 6.4761
18.0442, 6.0237
18.0659, 6.3332
18.0876, 6.7142
18.1093, 6.9522
18.1310, 6.8808
18.1527, 6.0713
18.1744, 6.3808
18.1961, 6.7618
18.2178, 6.3094
18.2395, 5.8808
18.2612, 5.9999
18.2829, 5.7618
18.3046, 6.2142
18.3263, 5.6427
18.3480, 6.1904
18.3697, 6.3808
18.3914, 6.1189
18.4131, 5.9999
18.4348, 5.5951
18.4565, 6.1665
18.4782, 6.4046
18.4999, 5.4285
18.5216, 5.9285
18.5433, 6.2856
18.5650, 6.1904
18.5867, 5.7618
18.6084, 5.4047
18.6301, 6.0237
18.6518, 6.2618
18.6735, 5.9523
18.6952, 5.7856
18.7169, 6.1427
18.7386, 5.9285
18.7603, 4.8809
18.7820, 5.5713
18.8037, 5.8332
18.8254, 5.7856
18.8471, 5.7618
18.8688, 5.8094
18.8904, 5.7142
18.9121, 5.2856
18.9338, 6.0237
18.9555, 6.4046
18.9772, 5.4285
18.9989, 5.2142
19.0206, 5.8094
19.0423, 6.0951
19.0640, 5.4761
19.0857, 5.8808
19.1074, 5.8570
19.1291, 5.7380
19.1508, 5.5951
19.1725, 5.8570
19.1942, 5.8332
19.2159, 6.1189
19.2376, 5.8808
19.2593, 5.7618
19.2810, 5.7380
19.3027, 6.7856
19.3244, 6.2142
19.3461, 5.6666
19.3678, 6.6903
19.3895, 5.3094
19.4112, 6.3332
19.4329, 5.9285
19.4546, 5.6427
19.4763, 6.1189
19.4980, 5.3570
19.5197, 6.6665
19.5414, 5.4999
19.5631, 6.0713
19.5848, 6.0951
19.6065, 5.6189
19.6282, 6.2856
19.6499, 5.4285
19.6716, 6.1904
19.6933, 5.0951
19.7150, 5.1189
19.7367, 5.5475
19.7584, 5.8094
19.7801, 5.6427
19.8018, 5.9761
19.8235, 5.3332
19.8452, 5.1904
19.8669, 5.6189
19.8886, 5.4761
19.9103, 5.4761
19.9319, 5.0951
19.9536, 5.9046
19.9753, 5.6666
19.9970, 5.5713
20.0187, 5.3808
20.0404, 5.1904
20.0621, 4.9999
20.0838, 5.3808
20.1055, 5.7618
20.1272, 6.0237
20.1489, 5.6904
20.1706, 6.4046
20.1923, 4.6904
20.2140, 5.4999
20.2357, 5.3808
20.2574, 5.4761
20.2791, 5.5951
20.3008, 5.0713
20.3225, 5.1904
20.3442, 4.9761
20.3659, 5.1904
20.3876, 5.5237
20.4093, 5.6904
20.4310, 6.1189
20.4527, 5.6904
20.4744, 5.7380
20.4961, 5.0475
20.5178, 5.7380
20.5395, 5.8094
20.5612, 5.9523
20.5829, 5.9285
20.6046, 5.5237
20.6263, 5.4047
20.6480, 5.5713
20.6697, 5.8094
20.6914, 5.1189
20.7131, 5.5713
20.7348, 4.3809
20.7565, 5.1189
20.7782, 5.9761
20.7999, 6.4999
20.8216, 5.7142
20.8433, 5.5237
20.8650, 5.9285
20.8867, 6.1665
20.9084, 5.6189
20.9301, 4.9285
20.9517, 5.8332
20.9734, 5.3570
20.9951, 5.6904
21.0168, 5.2618
21.0385, 5.8808
21.0602, 5.9999
21.0819, 5.5713
21.1036, 5.3808
21.1253, 5.3570
21.1470, 5.8094
21.1687, 5.2856
21.1904, 5.0951
21.2121, 5.8808
21.2338, 5.5713
21.2555, 5.3094
21.2772, 5.8094
21.2989, 6.3570
21.3206, 5.0951
21.3423, 6.1665
21.3640, 5.7142
21.3857, 5.9761
21.4074, 5.3570
21.4291, 5.3332
21.4508, 5.8808
21.4725, 5.9523
21.4942, 6.2142
21.5159, 5.0475
21.5376, 5.2856
21.5593, 5.8094
21.5810, 5.5713
21.6027, 5.6904
21.6244, 5.6666
21.6461, 5.0475
21.6678, 5.3808
21.6895, 5.7380
21.7112, 5.0951
21.7329, 5.5713
21.7546, 5.2856
21.7763, 5.4285
21.7980, 5.2856
21.8197, 5.5951
21.8414, 5.4047
21.8631, 6.2380
21.8848, 6.8570
21.9065, 5.3570
21.9282, 6.0237
21.9499, 5.7856
21.9716, 5.6189
21.9932, 5.5713
22.0149, 5.9046
22.0366, 5.8570
22.0583, 5.8094
22.0800, 6.0951
22.1017, 5.1666
22.1234, 6.5713
22.1451, 5.7380
22.1668, 6.3094
22.1885, 5.4523
22.2102, 5.9285
22.2319, 5.4761
22.2536, 5.9523
22.2753, 5.4999
22.2970, 5.7380
22.3187, 5.7856
22.3404, 5.7618
22.3621, 5.2856
22.3838, 6.0951
22.4055, 5.9285
22.4272, 5.1904
22.4489, 5.3094
22.4706, 6.4761
22.4923, 5.5475
22.5140, 5.9523
22.5357, 5.1666
22.5574, 6.6189
22.5791, 5.2380
22.6008, 5.9523
22.6225, 5.2142
22.6442, 6.0475
22.6659, 6.1665
22.6876, 5.7142
22.7093, 6.2856
22.7310, 5.4999
22.7527, 5.7856
22.7744, 5.7856
22.7961, 5.4047
22.8178, 5.3570
22.8395, 5.9523
22.8612, 5.7380
22.8829, 5.7856
22.9046, 5.5475
22.9263, 5.6904
22.9480, 5.6904
22.9697, 5.9999
22.9914, 5.8808
23.0130, 6.3570
23.0347, 6.0475
23.0564, 5.6427
23.0781, 5.7380
23.0998, 5.9761
23.1215, 5.5237
23.1432, 5.1666
23.1649, 5.6904
23.1866, 5.3570
23.2083, 5.5951
23.2300, 5.5951
23.2517, 5.6189
23.2734, 5.8808
23.2951, 6.0475
23.3168, 5.9523
23.3385, 6.5475
23.3602, 5.4523
23.3819, 5.1428
23.4036, 5.6666
23.4253, 5.7856
23.4470, 5.5951
23.4687, 5.5475
23.4904, 5.8094
23.5121, 5.6427
23.5338, 5.6427
23.5555, 5.5237
23.5772, 5.7380
23.5989, 5.8094
23.6206, 6.2142
23.6423, 5.7380
23.6640, 5.6666
23.6857, 5.9046
23.7074, 6.4046
23.7291, 6.2142
23.7508, 5.3808
23.7725, 6.9046
23.7942, 6.8808
23.8159, 6.4046
23.8376, 5.6666
23.8593, 6.4046
23.8810, 5.6666
23.9027, 5.6189
23.9244, 6.2380
23.9461, 6.3570
23.9678, 5.0713
23.9895, 5.5475
24.0112, 5.5475
24.0329, 6.3808
24.0545, 5.4523
24.0762, 5.8808
24.0979, 5.0951
24.1196, 5.9285
24.1413, 5.8332
24.1630, 5.3332
24.1847, 5.6904
24.2064, 5.9999
24.2281, 5.5951
24.2498, 6.1904
24.2715, 5.7618
24.2932, 5.6666
24.3149, 6.3332
24.3366, 5.8570
24.3583, 5.7380
24.3800, 6.6189
24.4017, 6.5237
24.4234, 6.5951
24.4451, 5.3332
24.4668, 6.2618
24.4885, 6.0475
24.5102, 5.9285
24.5319, 6.2142
24.5536, 6.0713
24.5753, 6.3094
24.5970, 5.2380
24.6187, 6.1904
24.6404, 6.1427
24.6621, 6.1904
24.6838, 6.8094
24.7055, 5.8570
24.7272, 6.4046
24.7489, 6.6903
24.7706, 6.1427
24.7923, 5.8570
24.8140, 5.9999
24.8357, 7.0951
24.8574, 6.9522
24.8791, 6.4999
24.9008, 6.8808
24.9225, 7.1665
24.9442, 6.4523
24.9659, 7.3094
24.9876, 6.6665
25.0093, 6.4046
25.0310, 6.8570
25.0527, 6.6189
25.0744, 7.4284
25.0960, 6.7618
25.1177, 6.7856
25.1394, 7.5713
25.1611, 7.3094
25.1828, 6.6427
25.2045, 8.1189
25.2262, 6.7142
25.2479, 7.0475
25.2696, 6.9046
25.2913, 7.0237
25.3130, 7.4284
25.3347, 7.1903
25.3564, 6.9046
25.3781, 7.1903
25.3998, 6.4523
25.4215, 7.2618
25.4432, 6.9999
25.4649, 7.0951
25.4866, 7.0713
25.5083, 6.2618
25.5300, 6.6189
25.5517, 7.1427
25.5734, 7.3332
25.5951, 7.6665
25.6168, 8.1427
25.6385, 8.0951
25.6602, 7.8332
25.6819, 8.0713
25.7036, 7.4999
25.7253, 9.1903
25.7470, 8.0951
25.7687, 8.6903
25.7904, 7.6189
25.8121, 8.0713
25.8338, 7.9522
25.8555, 8.8808
25.8772, 8.3094
25.8989, 8.7379
25.9206, 8.8332
25.9423, 9.4522
25.9640, 9.7617
25.9857, 9.7855
26.0074, 9.9046
26.0291, 9.9522
26.0508, 10.7141
26.0725, 10.1665
26.0942, 10.4760
26.1158, 11.3807
26.1375, 10.8569
26.1592, 11.1426
26.1809, 10.1427
26.2026, 10.7379
26.2243, 12.2141
26.2460, 11.3093
26.2677, 11.1665
26.2894, 10.7141
26.3111, 11.1188
26.3328, 11.2141
26.3545, 10.6188
26.3762, 10.8331
26.3979, 10.6188
26.4196, 10.9998
26.4413, 10.5236
26.4630, 9.9284
26.4847, 9.4998
26.5064, 10.3093
26.5281, 10.0950
26.5498, 10.0474
26.5715, 9.6665
26.5932, 8.9284
26.6149, 9.8331
26.6366, 8.9760
26.6583, 8.5713
26.6800, 8.7617
26.7017, 8.9046
26.7234, 8.2617
26.7451, 8.8808
26.7668, 7.1903
26.7885, 8.9046
26.8102, 8.9046
26.8319, 7.6903
26.8536, 7.7379
26.8753, 8.0713
26.8970, 8.0475
26.9187, 7.8570
26.9404, 7.5237
26.9621, 7.3094
26.9838, 8.1903
27.0055, 7.4760
27.0272, 7.9760
27.0489, 7.7379
27.0706, 7.8570
27.0923, 8.4522
27.1140, 7.6903
27.1357, 7.2141
27.1573, 7.4522
27.1790, 8.3332
27.2007, 7.6427
27.2224, 8.3570
27.2441, 6.7618
27.2658, 7.4522
27.2875, 7.9998
27.3092, 7.9522
27.3309, 7.9284
27.3526, 8.0951
27.3743, 7.7618
27.3960, 8.3570
27.4177, 7.9998
27.4394, 7.8332
27.4611, 8.4284
27.4828, 7.5475
27.5045, 7.6665
27.5262, 8.5951
27.5479, 7.5475
27.5696, 7.8332
27.5913, 7.6189
27.6130, 7.6427
27.6347, 7.5713
27.6564, 7.6189
27.6781, 8.0237
27.6998, 7.5237
27.7215, 7.4046
27.7432, 7.9046
27.7649, 7.9522
27.7866, 7.0237
27.8083, 8.5475
27.8300, 7.6903
27.8517, 7.6189
27.8734, 7.7856
27.8951, 7.2141
27.9168, 8.3094
27.9385, 8.5236
27.9602, 8.1189
27.9819, 8.7617
28.0036, 8.5236
28.0253, 8.2141
28.0470, 8.1903
28.0687, 8.8570
28.0904, 8.5951
28.1121, 8.2617
28.1338, 8.4046
28.1555, 7.9760
28.1771, 8.0237
28.1988, 7.6665
28.2205, 8.2617
28.2422, 8.4998
28.2639, 8.9522
28.2856, 8.7617
28.3073, 8.4284
28.3290, 8.0951
28.3507, 8.8094
28.3724, 8.5951
28.3941, 8.4522
28.4158, 8.2617
28.4375, 8.3570
28.4592, 8.6665
28.4809, 9.6665
28.5026, 9.1665
28.5243, 8.4998
28.5460, 8.9522
28.5677, 8.9760
28.5894, 10.0950
28.6111, 9.8093
28.6328, 9.2855
28.6545, 9.6665
28.6762, 9.8808
28.6979, 10.5950
28.7196, 9.7379
28.7413, 10.0474
28.7630, 9.8331
28.7847, 9.9284
28.8064, 10.1665
28.8281, 10.3569
28.8498, 9.3570
28.8715, 10.5950
28.8932, 9.8808
28.9149, 9.9284
28.9366, 10.1665
28.9583, 11.0712
28.9800, 10.1427
29.0017, 10.5474
29.0234, 9.6427
29.0451, 10.5236
29.0668, 10.0474
29.0885, 9.4760
29.1102, 9.1665
29.1319, 10.8331
29.1536, 11.2617
29.1753, 10.1665
29.1970, 10.8331
29.2186, 10.3331
29.2403, 10.9046
29.2620, 10.7379
29.2837, 9.9522
29.3054, 10.5236
29.3271, 10.4284
29.3488, 10.9522
29.3705, 10.4760
29.3922, 11.3569
29.4139, 9.7855
29.4356, 9.9998
29.4573, 9.7617
29.4790, 9.8570
29.5007, 9.5951
29.5224, 10.4760
29.5441, 10.0474
29.5658, 9.4998
29.5875, 10.9998
29.6092, 9.8808
29.6309, 10.2379
29.6526, 10.2141
29.6743, 9.7379
29.6960, 10.1189
29.7177, 9.7855
29.7394, 9.6903
29.7611, 10.4998
29.7828, 9.3808
29.8045, 11.0236
29.8262, 10.7855
29.8479, 10.7855
29.8696, 10.5236
29.8913, 9.4284
29.9130, 9.9046
29.9347, 9.7855
29.9564, 9.5236
29.9781, 10.2855
29.9998, 9.1427
30.0215, 8.9284
30.0432, 9.3570
30.0649, 10.0474
30.0866, 9.5474
30.1083, 8.5475
30.1300, 9.5474
30.1517, 8.5236
30.1734, 8.3570
30.1951, 9.1665
30.2168, 8.5713
30.2385, 8.7141
30.2601, 9.3093
30.2818, 10.0236
30.3035, 8.9760
30.3252, 9.0474
30.3469, 8.4760
30.3686, 9.0713
30.3903, 8.9760
30.4120, 9.5951
30.4337, 8.6665
30.4554, 8.6189
30.4771, 8.5713
30.4988, 8.2617
30.5205, 8.5475
30.5422, 8.1903
30.5639, 9.0713
30.5856, 8.1427
30.6073, 8.8094
30.6290, 8.4760
30.6507, 8.9998
30.6724, 9.0474
30.6941, 8.8094
30.7158, 9.0951
30.7375, 9.3570
30.7592, 9.4284
30.7809, 8.9760
30.8026, 9.9284
30.8243, 8.2856
30.8460, 9.1427
30.8677, 9.4998
30.8894, 10.0474
30.9111, 9.8331
30.9328, 9.4284
30.9545, 10.2855
30.9762, 9.8570
30.9979, 9.5236
31.0196, 9.8570
31.0413, 10.3093
31.0630, 9.5712
31.0847, 9.1427
31.1064, 9.5236
31.1281, 9.9046
31.1498, 9.4760
31.1715, 9.4998
31.1932, 8.9998
31.2149, 8.9998
31.2366, 9.7379
31.2583, 9.6665
31.2799, 9.4522
31.3016, 9.4522
31.3233, 8.8332
31.3450, 10.0236
31.3667, 8.5475
31.3884, 9.3093
31.4101, 9.7379
31.4318, 9.8331
31.4535, 10.3331
31.4752, 9.2379
31.4969, 8.6903
31.5186, 8.0951
31.5403, 9.1427
31.5620, 9.2855
31.5837, 9.2617
31.6054, 8.4284
31.6271, 9.6903
31.6488, 8.8094
31.6705, 9.5236
31.6922, 9.0236
31.7139, 9.2141
31.7356, 9.4998
31.7573, 9.5951
31.7790, 8.4760
31.8007, 8.5236
31.8224, 9.4998
31.8441, 8.8332
31.8658, 9.0236
31.8875, 9.3332
31.9092, 9.2617
31.9309, 9.4522
31.9526, 8.9522
31.9743, 8.2379
31.9960, 9.7855
32.0177, 8.5475
32.0394, 8.9522
32.0611, 9.1903
32.0828, 8.1189
32.1045, 9.4998
32.1262, 9.5712
32.1479, 8.2379
32.1696, 8.5713
32.1913, 8.7141
32.2130, 8.8808
32.2347, 8.0237
32.2564, 7.6427
32.2781, 8.8094
32.2998, 8.5236
32.3214, 8.1189
32.3431, 8.7855
32.3648, 8.6665
32.3865, 8.4760
32.4082, 8.9998
32.4299, 7.9522
32.4516, 8.4046
32.4733, 7.9998
32.4950, 8.1427
32.5167, 8.2856
32.5384, 8.3570
32.5601, 7.8094
32.5818, 8.6189
32.6035, 8.3808
32.6252, 8.6427
32.6469, 7.7618
32.6686, 8.3094
32.6903, 8.9760
32.7120, 8.2617
32.7337, 8.4284
32.7554, 8.9284
32.7771, 8.5236
32.7988, 8.2141
32.8205, 8.5236
32.8422, 8.5951
32.8639, 8.9998
32.8856, 9.0474
32.9073, 8.6427
32.9290, 8.9998
32.9507, 9.4284
32.9724, 9.4284
32.9941, 9.0474
33.0158, 7.8332
33.0375, 8.7141
33.0592, 8.8332
33.0809, 8.7617
33.1026, 8.2141
33.1243, 8.3332
33.1460, 8.3808
33.1677, 8.6427
33.1894, 9.1189
33.2111, 9.7141
33.2328, 8.5951
33.2545, 9.6903
33.2762, 9.0951
33.2979, 8.6427
33.3196, 8.9998
33.3412, 8.5236
33.3629, 9.2141
33.3846, 9.8570
33.4063, 8.8570
33.4280, 9.6189
33.4497, 8.9760
33.4714, 9.7141
33.4931, 9.0236
33.5148, 9.3093
33.5365, 9.3570
33.5582, 10.0950
33.5799, 9.9046
33.6016, 9.1427
33.6233, 10.2141
33.6450, 9.4046
33.6667, 10.0950
33.6884, 9.8093
33.7101, 9.1903
33.7318, 9.9046
33.7535, 9.8570
33.7752, 9.2617
33.7969, 9.8570
33.8186, 9.2379
33.8403, 9.3808
33.8620, 8.2856
33.8837, 8.3808
33.9054, 8.3332
33.9271, 9.4046
33.9488, 8.9046
33.9705, 8.1189
33.9922, 8.4522
34.0139, 8.5951
34.0356, 8.8332
34.0573, 8.5236
34.0790, 8.7617
34.1007, 7.5237
34.1224, 8.8570
34.1441, 8.9284
34.1658, 8.4522
34.1875, 8.6427
34.2092, 9.6189
34.2309, 9.0713
34.2526, 9.8808
34.2743, 9.7617
34.2960, 8.0237
34.3177, 9.4998
34.3394, 9.1189
34.3611, 8.6665
34.3827, 9.2617
34.4044, 8.9284
34.4261, 9.1665
34.4478, 8.9998
34.4695, 8.9760
34.4912, 8.9046
34.5129, 8.7141
34.5346, 8.1427
34.5563, 7.9284
34.5780, 8.7855
34.5997, 9.2141
34.6214, 8.9522
34.6431, 7.9998
34.6648, 8.4760
34.6865, 8.3808
34.7082, 8.5475
34.7299, 7.4999
34.7516, 8.4998
34.7733, 7.9760
34.7950, 8.3332
34.8167, 8.1427
34.8384, 8.3332
34.8601, 8.0237
34.8818, 8.8094
34.9035, 7.9760
34.9252, 7.9046
34.9469, 8.0713
34.9686, 8.7855
34.9903, 7.7379
35.0120, 8.4998
35.0337, 7.8570
35.0554, 8.1903
35.0771, 7.1189
35.0988, 7.6427
35.1205, 7.6903
35.1422, 7.5713
35.1639, 7.6903
35.1856, 7.6903
35.2073, 8.3094
35.2290, 7.6665
35.2507, 8.6189
35.2724, 7.8808
35.2941, 7.1427
35.3158, 8.3808
35.3375, 8.0237
35.3592, 7.3570
35.3809, 7.6427
35.4026, 7.5237
35.4242, 8.1427
35.4459, 7.8808
35.4676, 7.4284
35.4893, 7.9760
35.5110, 7.3808
35.5327, 8.1665
35.5544, 7.3332
35.5761, 7.9522
35.5978, 7.9522
35.6195, 7.5713
35.6412, 7.1665
35.6629, 7.9284
35.6846, 8.0713
35.7063, 8.4760
35.7280, 7.7856
35.7497, 7.7618
35.7714, 8.4046
35.7931, 7.8094
35.8148, 8.5713
35.8365, 7.4046
35.8582, 8.2617
35.8799, 7.9998
35.9016, 8.1665
35.9233, 8.1903
35.9450, 7.6903
35.9667, 7.4999
35.9884, 8.4998
36.0101, 8.4046
36.0318, 8.2617
36.0535, 8.3332
36.0752, 8.1189
36.0969, 8.2617
36.1186, 8.1427
36.1403, 7.7856
36.1620, 8.0237
36.1837, 7.4046
36.2054, 8.4284
36.2271, 7.5713
36.2488, 7.6665
36.2705, 7.6189
36.2922, 8.3094
36.3139, 7.7618
36.3356, 8.1665
36.3573, 7.9046
36.3790, 8.7617
36.4007, 7.9284
36.4224, 7.8808
36.4440, 7.7856
36.4657, 7.9284
36.4874, 8.5236
36.5091, 7.8332
36.5308, 8.6189
36.5525, 8.1903
36.5742, 8.4760
36.5959, 8.0713
36.6176, 6.9046
36.6393, 8.0951
36.6610, 7.9046
36.6827, 7.7856
36.7044, 8.0237
36.7261, 8.4046
36.7478, 7.7379
36.7695, 7.7379
36.7912, 7.4046
36.8129, 7.9284
36.8346, 8.1189
36.8563, 7.9760
36.8780, 8.1665
36.8997, 8.5713
36.9214, 7.3332
36.9431, 7.7618
36.9648, 7.1665
36.9865, 7.2141
37.0082, 7.3332
37.0299, 7.8808
37.0516, 7.3808
37.0733, 8.5951
37.0950, 7.2618
37.1167, 8.1427
37.1384, 7.7856
37.1601, 7.5713
37.1818, 7.3094
37.2035, 8.0475
37.2252, 7.4046
37.2469, 7.7856
37.2686, 7.4999
37.2903, 7.5951
37.3120, 8.0237
37.3337, 7.9284
37.3554, 7.5951
37.3771, 8.5713
37.3988, 7.8808
37.4205, 7.9284
37.4422, 7.3570
37.4639, 8.6903
37.4855, 7.6427
37.5072, 6.9284
37.5289, 7.6189
37.5506, 8.6665
37.5723, 7.4284
37.5940, 7.9998
37.6157, 7.4999
37.6374, 7.8808
37.6591, 8.4046
37.6808, 8.0475
37.7025, 7.7618
37.7242, 7.9522
37.7459, 9.2617
37.7676, 7.7379
37.7893, 8.4998
37.8110, 7.2141
37.8327, 8.2856
37.8544, 7.5713
37.8761, 7.8808
37.8978, 7.9760
37.9195, 7.5237
37.9412, 7.9998
37.9629, 8.6665
37.9846, 8.1903
38.0063, 8.5951
38.0280, 7.9760
38.0497, 8.1189
38.0714, 7.8094
38.0931, 8.4760
38.1148, 7.9760
38.1365, 7.8570
38.1582, 7.3570
38.1799, 8.2141
38.2016, 7.4999
38.2233, 8.3094
38.2450, 7.7379
38.2667, 7.9046
38.2884, 7.2856
38.3101, 8.3332
38.3318, 7.8094
38.3535, 7.9284
38.3752, 8.4998
38.3969, 7.6665
38.4186, 7.6189
38.4403, 7.9998
38.4620, 8.4046
38.4837, 7.9046
38.5053, 7.8332
38.5270, 8.0713
38.5487, 8.3570
38.5704, 8.5236
38.5921, 8.2379
38.6138, 8.1665
38.6355, 7.8094
38.6572, 6.8808
38.6789, 8.1189
38.7006, 7.5951
38.7223, 8.3808
38.7440, 7.7618
38.7657, 8.9522
38.7874, 7.5475
38.8091, 9.4998
38.8308, 7.8332
38.8525, 7.5475
38.8742, 8.2141
38.8959, 7.7856
38.9176, 8.7141
38.9393, 8.1189
38.9610, 8.2379
38.9827, 7.8570
39.0044, 8.8094
39.0261, 7.6903
39.0478, 7.9522
39.0695, 8.8094
39.0912, 7.9760
39.1129, 9.0951
39.1346, 8.3808
39.1563, 8.4522
39.1780, 8.7379
39.1997, 8.5236
39.2214, 8.4284
39.2431, 7.6903
39.2648, 8.5475
39.2865, 8.9998
39.3082, 8.2856
39.3299, 7.7856
39.3516, 8.7379
39.3733, 9.0713
39.3950, 9.8331
39.4167, 8.9046
39.4384, 8.3808
39.4601, 8.6665
39.4818, 8.8570
39.5035, 9.0951
39.5252, 8.8094
39.5468, 9.3570
39.5685, 8.5713
39.5902, 8.8332
39.6119, 9.1665
39.6336, 8.7617
39.6553, 8.6903
39.6770, 9.3332
39.6987, 9.1189
39.7204, 9.0951
39.7421, 10.2379
39.7638, 8.8094
39.7855, 9.7617
39.8072, 9.4284
39.8289, 8.5236
39.8506, 8.4522
39.8723, 9.0236
39.8940, 9.6665
39.9157, 8.8332
39.9374, 9.3570
39.9591, 9.6665
39.9808, 9.0474
40.0025, 9.5236
40.0242, 8.9998
40.0459, 9.8808
40.0676, 9.0951
40.0893, 9.8570
40.1110, 9.7141
40.1327, 8.5713
40.1544, 9.8093
40.1761, 8.4760
40.1978, 10.0236
40.2195, 9.2379
40.2412, 9.5236
40.2629, 8.8094
40.2846, 9.9760
40.3063, 9.3093
40.3280, 9.9998
40.3497, 10.4522
40.3714, 9.1903
40.3931, 8.4284
40.4148, 9.2617
40.4365, 8.6903
40.4582, 9.9522
40.4799, 9.1903
40.5016, 8.6665
40.5233, 9.9284
40.5450, 9.3332
40.5667, 8.8094
40.5883, 9.4046
40.6100, 9.7855
40.6317, 9.2379
40.6534, 9.6189
40.6751, 9.0713
40.6968, 9.6665
40.7185, 9.4046
40.7402, 9.3332
40.7619, 9.0236
40.7836, 9.7379
40.8053, 10.4284
40.8270, 9.7379
40.8487, 9.5951
40.8704, 9.4522
40.8921, 8.9760
40.9138, 9.7617
40.9355, 10.0950
40.9572, 9.0236
40.9789, 9.0951
41.0006, 9.6427
41.0223, 9.4522
41.0440, 9.3570
41.0657, 9.7379
41.0874, 9.4998
41.1091, 9.6427
41.1308, 9.2141
41.1525, 9.8808
41.1742, 9.2141
41.1959, 9.3808
41.2176, 9.0951
41.2393, 8.7617
41.2610, 9.9760
41.2827, 9.5236
41.3044, 9.3332
41.3261, 9.4522
41.3478, 8.7379
41.3695, 9.2141
41.3912, 9.2379
41.4129, 8.6665
41.4346, 8.5236
41.4563, 9.4522
41.4780, 9.2141
41.4997, 8.7617
41.5214, 9.8331
41.5431, 9.4760
41.5648, 9.0474
41.5865, 9.0951
41.6081, 9.3332
41.6298, 9.1427
41.6515, 9.4998
41.6732, 9.0713
41.6949, 9.0713
41.7166, 9.4998
41.7383, 9.4046
41.7600, 9.9998
41.7817, 8.7617
41.8034, 9.3093
41.8251, 10.3569
41.8468, 8.5475
41.8685, 10.0950
41.8902, 9.1189
41.9119, 9.0474
41.9336, 10.4522
41.9553, 9.3093
41.9770, 9.2617
41.9987, 10.3093
42.0204, 10.3331
42.0421, 9.0474
42.0638, 9.3570
42.0855, 9.5474
42.1072, 9.5712
42.1289, 9.7855
42.1506, 9.9284
42.1723, 10.2379
42.1940, 9.7379
42.2157, 9.8093
42.2374, 10.6665
42.2591, 10.9998
42.2808, 11.4284
42.3025, 11.5474
42.3242, 11.5474
42.3459, 11.2141
42.3676, 10.9284
42.3893, 10.1665
42.4110, 11.1665
42.4327, 10.8807
42.4544, 10.7141
42.4761, 10.5712
42.4978, 10.9046
42.5195, 10.4998
42.5412, 9.5236
42.5629, 10.8569
42.5846, 11.4045
42.6063, 10.0950
42.6280, 10.8093
42.6496, 10.0712
42.6713, 8.9046
42.6930, 9.2379
42.7147, 10.3569
42.7364, 10.2379
42.7581, 9.4046
42.7798, 8.5951
42.8015, 9.4284
42.8232, 8.5713
42.8449, 9.2617
42.8666, 9.3808
42.8883, 8.9998
42.9100, 8.5713
42.9317, 8.9046
42.9534, 9.3332
42.9751, 8.8570
42.9968, 9.0236
43.0185, 9.1189
43.0402, 9.4522
43.0619, 9.4760
43.0836, 8.6903
43.1053, 8.9760
43.1270, 9.6427
43.1487, 8.4998
43.1704, 7.9760
43.1921, 9.7855
43.2138, 8.9998
43.2355, 8.7617
43.2572, 8.7379
43.2789, 9.2379
43.3006, 10.0236
43.3223, 8.9522
43.3440, 9.8570
43.3657, 9.3332
43.3874, 9.8808
43.4091, 9.4284
43.4308, 8.6665
43.4525, 9.0713
43.4742, 9.2617
43.4959, 9.1189
43.5176, 9.9522
43.5393, 8.7855
43.5610, 8.9760
43.5827, 8.7617
43.6044, 9.3570
43.6261, 9.3808
43.6478, 8.7855
43.6694, 8.8570
43.6911, 8.9760
43.7128, 8.4998
43.7345, 8.1189
43.7562, 8.8570
43.7779, 8.7855
43.7996, 7.9522
43.8213, 7.6903
43.8430, 8.9046
43.8647, 9.2379
43.8864, 8.9760
43.9081, 8.9046
43.9298, 9.1189
43.9515, 8.4284
43.9732, 8.2617
43.9949, 8.8332
44.0166, 8.5713
44.0383, 9.1189
44.0600, 8.5236
44.0817, 8.7379
44.1034, 8.8808
44.1251, 8.8332
44.1468, 9.0236
44.1685, 8.3332
44.1902, 8.2141
44.2119, 9.5236
44.2336, 8.6427
44.2553, 9.7379
44.2770, 8.9522
44.2987, 8.6427
44.3204, 8.6189
44.3421, 8.1427
44.3638, 8.9522
44.3855, 8.4522
44.4072, 8.6427
44.4289, 8.3808
44.4506, 8.5236
44.4723, 7.9522
44.4940, 8.1427
44.5157, 8.4522
44.5374, 9.1427
44.5591, 8.6903
44.5808, 8.8332
44.6025, 8.9998
44.6242, 8.7855
44.6459, 9.0713
44.6676, 8.1903
44.6893, 8.7379
44.7109, 8.4998
44.7326, 8.5713
44.7543, 8.5236
44.7760, 8.7617
44.7977, 8.8332
44.8194, 8.4998
44.8411, 8.7855
44.8628, 9.6665
44.8845, 8.5713
44.9062, 8.2141
44.9279, 9.0236
44.9496, 9.0236
44.9713, 8.9284
44.9930, 8.1903
45.0147, 10.0474
45.0364, 8.7617
45.0581, 9.9522
45.0798, 8.8332
45.1015, 8.4760
45.1232, 8.7379
45.1449, 9.0713
45.1666, 9.2141
45.1883, 8.6903
45.2100, 9.9046
45.2317, 10.8807
45.2534, 9.7617
45.2751, 9.9284
45.2968, 8.3808
45.3185, 9.2379
45.3402, 9.4522
45.3619, 8.9284
45.3836, 9.7379
45.4053, 9.5236
45.4270, 8.8094
45.4487, 9.7379
45.4704, 8.6189
45.4921, 9.9760
45.5138, 9.9998
45.5355, 9.4284
45.5572, 9.7379
45.5789, 9.7379
45.6006, 9.2141
45.6223, 9.0474
45.6440, 9.3332
45.6657, 8.8570
45.6874, 10.1427
45.7091, 9.0713
45.7308, 9.8570
45.7524, 9.8570
45.7741, 9.4284
45.7958, 8.7379
45.8175, 9.2141
45.8392, 9.4760
45.8609, 9.4760
45.8826, 8.8570
45.9043, 8.6903
45.9260, 8.7379
45.9477, 9.2617
45.9694, 8.5713
45.9911, 8.2379
46.0128, 8.7141
46.0345, 8.1903
46.0562, 9.0236
46.0779, 8.4046
46.0996, 9.7855
46.1213, 8.5951
46.1430, 8.8332
46.1647, 8.9046
46.1864, 9.0474
46.2081, 8.3094
46.2298, 8.6427
46.2515, 8.6427
46.2732, 8.9046
46.2949, 9.9998
46.3166, 9.3332
46.3383, 8.7141
46.3600, 9.0713
46.3817, 9.0713
46.4034, 8.9284
46.4251, 8.6427
46.4468, 8.7855
46.4685, 8.3808
46.4902, 7.9998
46.5119, 7.9760
46.5336, 8.7855
46.5553, 8.8332
46.5770, 8.9046
46.5987, 8.8094
46.6204, 8.9998
46.6421, 7.9284
46.6638, 8.4046
46.6855, 9.0474
46.7072, 8.4998
46.7289, 8.4046
46.7506, 7.9998
46.7722, 8.4760
46.7939, 9.1903
46.8156, 9.3570
46.8373, 8.6189
46.8590, 8.1665
46.8807, 9.4998
46.9024, 9.6427
46.9241, 8.5713
46.9458, 9.2141
46.9675, 8.2617
46.9892, 8.3332
##END=$$ End of the data block
